## w(eV)         sigma(Sm^-1)     kappa(W(mK)^-1)        L12/e(Am^-1)      L22/e^2(Wm^-1)
    0.01              171763             6316.57        -6.63497e+06         8.54685e+08
    0.03              171762             6316.77         -6.6352e+06         8.54723e+08
    0.05              171761             6317.19        -6.63566e+06         8.54799e+08
    0.07              171760              6317.8        -6.63634e+06         8.54912e+08
    0.09              171758             6318.63        -6.63726e+06         8.55064e+08
    0.11              171755             6319.66         -6.6384e+06         8.55253e+08
    0.13              171752             6320.89        -6.63977e+06         8.55481e+08
    0.15              171749             6322.33        -6.64137e+06         8.55746e+08
    0.17              171745             6323.97         -6.6432e+06         8.56049e+08
    0.19              171741             6325.82        -6.64526e+06          8.5639e+08
    0.21              171736             6327.88        -6.64755e+06         8.56769e+08
    0.23              171731             6330.14        -6.65006e+06         8.57185e+08
    0.25              171725              6332.6         -6.6528e+06          8.5764e+08
    0.27              171719             6335.26        -6.65577e+06         8.58132e+08
    0.29              171712             6338.13        -6.65897e+06         8.58662e+08
    0.31              171705             6341.21         -6.6624e+06          8.5923e+08
    0.33              171697             6344.48        -6.66606e+06         8.59835e+08
    0.35              171689             6347.96        -6.66994e+06         8.60479e+08
    0.37              171680             6351.64        -6.67405e+06          8.6116e+08
    0.39              171671             6355.52        -6.67839e+06         8.61879e+08
    0.41              171661              6359.6        -6.68295e+06         8.62635e+08
    0.43              171651             6363.88        -6.68775e+06         8.63429e+08
    0.45              171641             6368.36        -6.69277e+06         8.64261e+08
    0.47              171630             6373.04        -6.69801e+06         8.65131e+08
    0.49              171618             6377.92        -6.70349e+06         8.66038e+08
    0.51              171606             6382.99        -6.70919e+06         8.66982e+08
    0.53              171594             6388.27        -6.71511e+06         8.67965e+08
    0.55              171581             6393.74        -6.72127e+06         8.68984e+08
    0.57              171567              6399.4        -6.72765e+06         8.70042e+08
    0.59              171554             6405.26        -6.73425e+06         8.71136e+08
    0.61              171539             6411.31        -6.74108e+06         8.72268e+08
    0.63              171525             6417.56        -6.74814e+06         8.73438e+08
    0.65              171509                6424        -6.75542e+06         8.74645e+08
    0.67              171494             6430.63        -6.76292e+06         8.75889e+08
    0.69              171478             6437.45        -6.77066e+06          8.7717e+08
    0.71              171461             6444.46        -6.77861e+06         8.78489e+08
    0.73              171444             6451.66        -6.78679e+06         8.79845e+08
    0.75              171426             6459.05        -6.79519e+06         8.81238e+08
    0.77              171409             6466.63        -6.80382e+06         8.82668e+08
    0.79              171390             6474.39        -6.81267e+06         8.84136e+08
    0.81              171371             6482.33        -6.82175e+06          8.8564e+08
    0.83              171352             6490.46        -6.83104e+06         8.87181e+08
    0.85              171332             6498.78        -6.84056e+06          8.8876e+08
    0.87              171312             6507.27         -6.8503e+06         8.90375e+08
    0.89              171292             6515.94        -6.86027e+06         8.92027e+08
    0.91              171271              6524.8        -6.87045e+06         8.93716e+08
    0.93              171249             6533.83        -6.88086e+06         8.95442e+08
    0.95              171228             6543.04        -6.89149e+06         8.97204e+08
    0.97              171205             6552.42        -6.90233e+06         8.99003e+08
    0.99              171183             6561.98         -6.9134e+06         9.00839e+08
    1.01              171159             6571.71        -6.92469e+06         9.02711e+08
    1.03              171136             6581.61         -6.9362e+06          9.0462e+08
    1.05              171112             6591.69        -6.94792e+06         9.06565e+08
    1.07              171088             6601.93        -6.95987e+06         9.08546e+08
    1.09              171063             6612.34        -6.97203e+06         9.10564e+08
    1.11              171038             6622.92        -6.98441e+06         9.12618e+08
    1.13              171012             6633.66        -6.99701e+06         9.14708e+08
    1.15              170986             6644.56        -7.00983e+06         9.16834e+08
    1.17              170960             6655.63        -7.02286e+06         9.18997e+08
    1.19              170933             6666.85        -7.03611e+06         9.21195e+08
    1.21              170906             6678.24        -7.04957e+06         9.23429e+08
    1.23              170878             6689.78        -7.06325e+06         9.25699e+08
    1.25              170850             6701.47        -7.07715e+06         9.28005e+08
    1.27              170822             6713.32        -7.09126e+06         9.30347e+08
    1.29              170793             6725.33        -7.10558e+06         9.32724e+08
    1.31              170764             6737.48        -7.12011e+06         9.35136e+08
    1.33              170735             6749.78        -7.13486e+06         9.37584e+08
    1.35              170705             6762.23        -7.14982e+06         9.40068e+08
    1.37              170674             6774.83        -7.16499e+06         9.42587e+08
    1.39              170644             6787.57        -7.18038e+06         9.45141e+08
    1.41              170613             6800.45        -7.19597e+06          9.4773e+08
    1.43              170582             6813.47        -7.21177e+06         9.50354e+08
    1.45              170550             6826.63        -7.22779e+06         9.53013e+08
    1.47              170518             6839.93        -7.24401e+06         9.55707e+08
    1.49              170485             6853.36        -7.26044e+06         9.58435e+08
    1.51              170453             6866.92        -7.27708e+06         9.61199e+08
    1.53              170420             6880.61        -7.29392e+06         9.63996e+08
    1.55              170386             6894.44        -7.31097e+06         9.66829e+08
    1.57              170352             6908.39        -7.32823e+06         9.69696e+08
    1.59              170318             6922.46        -7.34569e+06         9.72597e+08
    1.61              170284             6936.66        -7.36336e+06         9.75532e+08
    1.63              170249             6950.98        -7.38123e+06         9.78501e+08
    1.65              170214             6965.42         -7.3993e+06         9.81504e+08
    1.67              170178             6979.97        -7.41758e+06         9.84541e+08
    1.69              170143             6994.64        -7.43606e+06         9.87612e+08
    1.71              170106             7009.43        -7.45474e+06         9.90717e+08
    1.73              170070             7024.32        -7.47362e+06         9.93855e+08
    1.75              170033             7039.32         -7.4927e+06         9.97026e+08
    1.77              169996             7054.43        -7.51197e+06         1.00023e+09
    1.79              169959             7069.64        -7.53145e+06         1.00347e+09
    1.81              169921             7084.96        -7.55112e+06         1.00674e+09
    1.83              169883             7100.37        -7.57099e+06         1.01004e+09
    1.85              169845             7115.88        -7.59106e+06         1.01338e+09
    1.87              169807             7131.49        -7.61132e+06         1.01675e+09
    1.89              169768             7147.19        -7.63177e+06         1.02015e+09
    1.91              169729             7162.98        -7.65242e+06         1.02359e+09
    1.93              169689             7178.86        -7.67326e+06         1.02705e+09
    1.95              169650             7194.83         -7.6943e+06         1.03055e+09
    1.97              169610             7210.88        -7.71552e+06         1.03408e+09
    1.99              169569             7227.01        -7.73693e+06         1.03765e+09
    2.01              169529             7243.22        -7.75853e+06         1.04124e+09
    2.03              169488             7259.51        -7.78032e+06         1.04487e+09
    2.05              169447             7275.87         -7.8023e+06         1.04852e+09
    2.07              169406             7292.31        -7.82447e+06         1.05221e+09
    2.09              169364             7308.81        -7.84681e+06         1.05593e+09
    2.11              169322             7325.39        -7.86935e+06         1.05969e+09
    2.13              169280             7342.02        -7.89207e+06         1.06347e+09
    2.15              169238             7358.72        -7.91497e+06         1.06728e+09
    2.17              169195             7375.48        -7.93805e+06         1.07112e+09
    2.19              169152              7392.3        -7.96131e+06           1.075e+09
    2.21              169109             7409.17        -7.98475e+06          1.0789e+09
    2.23              169066              7426.1        -8.00837e+06         1.08284e+09
    2.25              169022             7443.07        -8.03217e+06          1.0868e+09
    2.27              168979             7460.09        -8.05614e+06         1.09079e+09
    2.29              168935             7477.16        -8.08029e+06         1.09482e+09
    2.31              168890             7494.27        -8.10462e+06         1.09887e+09
    2.33              168846             7511.42        -8.12911e+06         1.10295e+09
    2.35              168801             7528.61        -8.15378e+06         1.10707e+09
    2.37              168756             7545.83        -8.17862e+06         1.11121e+09
    2.39              168711             7563.08        -8.20363e+06         1.11537e+09
    2.41              168666             7580.37        -8.22881e+06         1.11957e+09
    2.43              168620             7597.68        -8.25416e+06          1.1238e+09
    2.45              168574             7615.01        -8.27967e+06         1.12805e+09
    2.47              168528             7632.37        -8.30535e+06         1.13234e+09
    2.49              168482             7649.75        -8.33119e+06         1.13665e+09
    2.51              168436             7667.14         -8.3572e+06         1.14098e+09
    2.53              168389             7684.55        -8.38336e+06         1.14535e+09
    2.55              168342             7701.96        -8.40969e+06         1.14974e+09
    2.57              168295             7719.39        -8.43618e+06         1.15416e+09
    2.59              168248             7736.82        -8.46282e+06         1.15861e+09
    2.61              168200             7754.26        -8.48962e+06         1.16308e+09
    2.63              168153              7771.7        -8.51658e+06         1.16758e+09
    2.65              168105             7789.13        -8.54369e+06          1.1721e+09
    2.67              168057             7806.56        -8.57096e+06         1.17666e+09
    2.69              168009             7823.99        -8.59837e+06         1.18123e+09
    2.71              167961              7841.4        -8.62594e+06         1.18584e+09
    2.73              167912              7858.8        -8.65365e+06         1.19047e+09
    2.75              167863             7876.19        -8.68151e+06         1.19512e+09
    2.77              167815             7893.56        -8.70952e+06          1.1998e+09
    2.79              167765              7910.9        -8.73767e+06          1.2045e+09
    2.81              167716             7928.23        -8.76597e+06         1.20923e+09
    2.83              167667             7945.53         -8.7944e+06         1.21398e+09
    2.85              167617              7962.8        -8.82298e+06         1.21876e+09
    2.87              167568             7980.04         -8.8517e+06         1.22356e+09
    2.89              167518             7997.24        -8.88055e+06         1.22838e+09
    2.91              167468             8014.41        -8.90954e+06         1.23323e+09
    2.93              167417             8031.54        -8.93867e+06          1.2381e+09
    2.95              167367             8048.63        -8.96792e+06         1.24299e+09
    2.97              167316             8065.67        -8.99731e+06         1.24791e+09
    2.99              167266             8082.67        -9.02683e+06         1.25284e+09
    3.01              167215             8099.62        -9.05648e+06          1.2578e+09
    3.03              167164             8116.51        -9.08625e+06         1.26279e+09
    3.05              167112             8133.35        -9.11615e+06         1.26779e+09
    3.07              167061             8150.14        -9.14617e+06         1.27281e+09
    3.09              167009             8166.86        -9.17632e+06         1.27786e+09
    3.11              166958             8183.52        -9.20658e+06         1.28293e+09
    3.13              166906             8200.11        -9.23697e+06         1.28801e+09
    3.15              166854             8216.64        -9.26747e+06         1.29312e+09
    3.17              166802              8233.1        -9.29809e+06         1.29825e+09
    3.19              166749             8249.48        -9.32882e+06          1.3034e+09
    3.21              166697             8265.79        -9.35966e+06         1.30856e+09
    3.23              166644             8282.02        -9.39061e+06         1.31375e+09
    3.25              166591             8298.17        -9.42167e+06         1.31895e+09
    3.27              166539             8314.23        -9.45284e+06         1.32418e+09
    3.29              166485             8330.21        -9.48412e+06         1.32942e+09
    3.31              166432              8346.1        -9.51549e+06         1.33468e+09
    3.33              166379             8361.91        -9.54697e+06         1.33996e+09
    3.35              166325             8377.61        -9.57855e+06         1.34525e+09
    3.37              166271             8393.23        -9.61023e+06         1.35057e+09
    3.39              166218             8408.74          -9.642e+06          1.3559e+09
    3.41              166164             8424.15        -9.67387e+06         1.36124e+09
    3.43              166109             8439.47        -9.70583e+06         1.36661e+09
    3.45              166055             8454.67        -9.73788e+06         1.37199e+09
    3.47              166000             8469.77        -9.77002e+06         1.37738e+09
    3.49              165946             8484.76        -9.80225e+06         1.38279e+09
    3.51              165891             8499.63        -9.83456e+06         1.38822e+09
    3.53              165836              8514.4        -9.86696e+06         1.39366e+09
    3.55              165781             8529.04        -9.89944e+06         1.39911e+09
    3.57              165726             8543.56        -9.93199e+06         1.40458e+09
    3.59              165670             8557.97        -9.96463e+06         1.41006e+09
    3.61              165614             8572.25        -9.99734e+06         1.41556e+09
    3.63              165559              8586.4        -1.00301e+07         1.42107e+09
    3.65              165503             8600.43         -1.0063e+07         1.42659e+09
    3.67              165447             8614.32        -1.00959e+07         1.43213e+09
    3.69              165390             8628.08        -1.01289e+07         1.43768e+09
    3.71              165334             8641.71        -1.01619e+07         1.44324e+09
    3.73              165277              8655.2        -1.01951e+07         1.44881e+09
    3.75              165220             8668.55        -1.02283e+07         1.45439e+09
    3.77              165163             8681.76        -1.02615e+07         1.45999e+09
    3.79              165106             8694.83        -1.02948e+07         1.46559e+09
    3.81              165049             8707.75        -1.03281e+07         1.47121e+09
    3.83              164991             8720.52        -1.03616e+07         1.47683e+09
    3.85              164933             8733.15         -1.0395e+07         1.48246e+09
    3.87              164875             8745.62        -1.04285e+07         1.48811e+09
    3.89              164817             8757.94        -1.04621e+07         1.49376e+09
    3.91              164759              8770.1        -1.04957e+07         1.49942e+09
    3.93              164700             8782.11        -1.05293e+07         1.50509e+09
    3.95              164642             8793.96         -1.0563e+07         1.51077e+09
    3.97              164583             8805.65        -1.05967e+07         1.51646e+09
    3.99              164524             8817.17        -1.06305e+07         1.52215e+09
    4.01              164464             8828.53        -1.06643e+07         1.52785e+09
    4.03              164405             8839.73        -1.06981e+07         1.53355e+09
    4.05              164345             8850.76        -1.07319e+07         1.53927e+09
    4.07              164285             8861.61        -1.07658e+07         1.54498e+09
    4.09              164225              8872.3        -1.07997e+07         1.55071e+09
    4.11              164164             8882.81        -1.08337e+07         1.55644e+09
    4.13              164104             8893.15        -1.08676e+07         1.56217e+09
    4.15              164043             8903.31        -1.09016e+07         1.56791e+09
    4.17              163982              8913.3        -1.09356e+07         1.57365e+09
    4.19              163920             8923.11        -1.09696e+07         1.57939e+09
    4.21              163859             8932.73        -1.10036e+07         1.58514e+09
    4.23              163797             8942.17        -1.10376e+07         1.59089e+09
    4.25              163735             8951.43        -1.10716e+07         1.59664e+09
    4.27              163673              8960.5        -1.11056e+07          1.6024e+09
    4.29              163610             8969.39        -1.11397e+07         1.60816e+09
    4.31              163547             8978.09        -1.11737e+07         1.61392e+09
    4.33              163484              8986.6        -1.12077e+07         1.61968e+09
    4.35              163421             8994.92        -1.12418e+07         1.62544e+09
    4.37              163357             9003.05        -1.12758e+07          1.6312e+09
    4.39              163293             9010.98        -1.13098e+07         1.63696e+09
    4.41              163229             9018.73        -1.13438e+07         1.64272e+09
    4.43              163164             9026.27        -1.13778e+07         1.64848e+09
    4.45              163099             9033.62        -1.14117e+07         1.65423e+09
    4.47              163034             9040.77        -1.14457e+07         1.65999e+09
    4.49              162969             9047.72        -1.14796e+07         1.66574e+09
    4.51              162903             9054.48        -1.15135e+07         1.67149e+09
    4.53              162837             9061.03        -1.15474e+07         1.67724e+09
    4.55              162771             9067.38        -1.15812e+07         1.68299e+09
    4.57              162704             9073.53        -1.16151e+07         1.68873e+09
    4.59              162637             9079.48        -1.16488e+07         1.69447e+09
    4.61              162570             9085.22        -1.16826e+07          1.7002e+09
    4.63              162502             9090.75        -1.17163e+07         1.70593e+09
    4.65              162434             9096.08          -1.175e+07         1.71165e+09
    4.67              162366              9101.2        -1.17836e+07         1.71737e+09
    4.69              162297             9106.12        -1.18172e+07         1.72308e+09
    4.71              162228             9110.83        -1.18507e+07         1.72878e+09
    4.73              162158             9115.32        -1.18842e+07         1.73448e+09
    4.75              162089             9119.61        -1.19176e+07         1.74017e+09
    4.77              162018             9123.69         -1.1951e+07         1.74586e+09
    4.79              161948             9127.56        -1.19843e+07         1.75153e+09
    4.81              161877             9131.22        -1.20176e+07          1.7572e+09
    4.83              161805             9134.66        -1.20508e+07         1.76286e+09
    4.85              161734             9137.89        -1.20839e+07         1.76851e+09
    4.87              161662             9140.91         -1.2117e+07         1.77414e+09
    4.89              161589             9143.72          -1.215e+07         1.77977e+09
    4.91              161516             9146.31        -1.21829e+07         1.78539e+09
    4.93              161443             9148.69        -1.22158e+07           1.791e+09
    4.95              161369             9150.86        -1.22485e+07          1.7966e+09
    4.97              161294             9152.81        -1.22812e+07         1.80218e+09
    4.99              161220             9154.55        -1.23138e+07         1.80775e+09
    5.01              161144             9156.07        -1.23464e+07         1.81331e+09
    5.03              161069             9157.38        -1.23788e+07         1.81886e+09
    5.05              160993             9158.47        -1.24111e+07          1.8244e+09
    5.07              160916             9159.35        -1.24434e+07         1.82992e+09
    5.09              160839             9160.01        -1.24756e+07         1.83542e+09
    5.11              160762             9160.46        -1.25076e+07         1.84092e+09
    5.13              160684             9160.69        -1.25396e+07         1.84639e+09
    5.15              160605             9160.71        -1.25715e+07         1.85186e+09
    5.17              160526             9160.51        -1.26032e+07          1.8573e+09
    5.19              160446             9160.09        -1.26349e+07         1.86273e+09
    5.21              160366             9159.46        -1.26664e+07         1.86815e+09
    5.23              160286             9158.62        -1.26979e+07         1.87355e+09
    5.25              160205             9157.56        -1.27292e+07         1.87893e+09
    5.27              160123             9156.29        -1.27604e+07         1.88429e+09
    5.29              160041              9154.8        -1.27915e+07         1.88963e+09
    5.31              159958              9153.1        -1.28224e+07         1.89496e+09
    5.33              159875             9151.19        -1.28533e+07         1.90027e+09
    5.35              159791             9149.06         -1.2884e+07         1.90556e+09
    5.37              159707             9146.72        -1.29146e+07         1.91083e+09
    5.39              159622             9144.17        -1.29451e+07         1.91607e+09
    5.41              159536              9141.4        -1.29754e+07          1.9213e+09
    5.43              159450             9138.42        -1.30056e+07         1.92651e+09
    5.45              159363             9135.24        -1.30356e+07          1.9317e+09
    5.47              159276             9131.84        -1.30655e+07         1.93686e+09
    5.49              159188             9128.23        -1.30953e+07           1.942e+09
    5.51              159099             9124.41        -1.31249e+07         1.94713e+09
    5.53              159010             9120.39        -1.31544e+07         1.95222e+09
    5.55              158920             9116.15        -1.31837e+07          1.9573e+09
    5.57              158829             9111.71        -1.32129e+07         1.96235e+09
    5.59              158738             9107.06        -1.32419e+07         1.96738e+09
    5.61              158646             9102.21        -1.32708e+07         1.97238e+09
    5.63              158554             9097.15        -1.32995e+07         1.97736e+09
    5.65              158461             9091.88        -1.33281e+07         1.98231e+09
    5.67              158367             9086.41        -1.33564e+07         1.98724e+09
    5.69              158272             9080.74        -1.33847e+07         1.99215e+09
    5.71              158177             9074.87        -1.34127e+07         1.99702e+09
    5.73              158081             9068.79        -1.34406e+07         2.00187e+09
    5.75              157984             9062.52        -1.34683e+07          2.0067e+09
    5.77              157887             9056.04        -1.34958e+07         2.01149e+09
    5.79              157789             9049.37        -1.35232e+07         2.01626e+09
    5.81              157690              9042.5        -1.35504e+07           2.021e+09
    5.83              157591             9035.43        -1.35774e+07         2.02572e+09
    5.85              157491             9028.17        -1.36042e+07          2.0304e+09
    5.87              157390             9020.71        -1.36308e+07         2.03506e+09
    5.89              157288             9013.06        -1.36572e+07         2.03968e+09
    5.91              157185             9005.22        -1.36835e+07         2.04428e+09
    5.93              157082             8997.18        -1.37096e+07         2.04885e+09
    5.95              156978             8988.96        -1.37354e+07         2.05338e+09
    5.97              156873             8980.55        -1.37611e+07         2.05789e+09
    5.99              156767             8971.94        -1.37866e+07         2.06236e+09
    6.01              156661             8963.16        -1.38118e+07         2.06681e+09
    6.03              156554             8954.18        -1.38369e+07         2.07122e+09
    6.05              156446             8945.03        -1.38618e+07          2.0756e+09
    6.07              156337             8935.69        -1.38864e+07         2.07995e+09
    6.09              156227             8926.17        -1.39109e+07         2.08426e+09
    6.11              156117             8916.47        -1.39351e+07         2.08854e+09
    6.13              156006             8906.59        -1.39592e+07         2.09279e+09
    6.15              155893             8896.53         -1.3983e+07           2.097e+09
    6.17              155780             8886.29        -1.40066e+07         2.10119e+09
    6.19              155667             8875.89          -1.403e+07         2.10533e+09
    6.21              155552              8865.3        -1.40531e+07         2.10944e+09
    6.23              155436             8854.55        -1.40761e+07         2.11352e+09
    6.25              155320             8843.62        -1.40988e+07         2.11756e+09
    6.27              155203             8832.53        -1.41213e+07         2.12157e+09
    6.29              155084             8821.27        -1.41436e+07         2.12554e+09
    6.31              154965             8809.84        -1.41656e+07         2.12947e+09
    6.33              154845             8798.25        -1.41874e+07         2.13337e+09
    6.35              154724             8786.49         -1.4209e+07         2.13723e+09
    6.37              154603             8774.57        -1.42303e+07         2.14106e+09
    6.39              154480             8762.49        -1.42514e+07         2.14485e+09
    6.41              154356             8750.25        -1.42723e+07          2.1486e+09
    6.43              154232             8737.86        -1.42929e+07         2.15231e+09
    6.45              154106             8725.31        -1.43133e+07         2.15598e+09
    6.47              153980              8712.6        -1.43335e+07         2.15962e+09
    6.49              153853             8699.75        -1.43534e+07         2.16322e+09
    6.51              153724             8686.74         -1.4373e+07         2.16678e+09
    6.53              153595             8673.58        -1.43924e+07          2.1703e+09
    6.55              153465             8660.28        -1.44116e+07         2.17378e+09
    6.57              153334             8646.82        -1.44305e+07         2.17722e+09
    6.59              153202             8633.23        -1.44492e+07         2.18062e+09
    6.61              153069             8619.49        -1.44676e+07         2.18398e+09
    6.63              152935             8605.61        -1.44858e+07          2.1873e+09
    6.65              152800             8591.59        -1.45037e+07         2.19058e+09
    6.67              152664             8577.43        -1.45213e+07         2.19382e+09
    6.69              152527             8563.14        -1.45387e+07         2.19702e+09
    6.71              152389             8548.71        -1.45558e+07         2.20018e+09
    6.73              152250             8534.15        -1.45727e+07         2.20329e+09
    6.75              152110             8519.46        -1.45893e+07         2.20637e+09
    6.77              151969             8504.64        -1.46056e+07          2.2094e+09
    6.79              151827              8489.7        -1.46217e+07         2.21239e+09
    6.81              151684             8474.62        -1.46375e+07         2.21534e+09
    6.83              151540             8459.42         -1.4653e+07         2.21825e+09
    6.85              151395              8444.1        -1.46683e+07         2.22111e+09
    6.87              151249             8428.66        -1.46833e+07         2.22393e+09
    6.89              151102              8413.1        -1.46981e+07         2.22671e+09
    6.91              150954             8397.43        -1.47125e+07         2.22944e+09
    6.93              150805             8381.64        -1.47267e+07         2.23213e+09
    6.95              150655             8365.73        -1.47406e+07         2.23478e+09
    6.97              150504             8349.71        -1.47543e+07         2.23739e+09
    6.99              150352             8333.58        -1.47676e+07         2.23995e+09
    7.01              150199             8317.35        -1.47807e+07         2.24246e+09
    7.03              150045             8301.01        -1.47935e+07         2.24493e+09
    7.05              149889             8284.56        -1.48061e+07         2.24736e+09
    7.07              149733             8268.01        -1.48183e+07         2.24975e+09
    7.09              149576             8251.36        -1.48303e+07         2.25208e+09
    7.11              149417             8234.61         -1.4842e+07         2.25438e+09
    7.13              149258             8217.76        -1.48534e+07         2.25663e+09
    7.15              149097             8200.82        -1.48645e+07         2.25883e+09
    7.17              148936             8183.78        -1.48754e+07         2.26099e+09
    7.19              148773             8166.65         -1.4886e+07         2.26311e+09
    7.21              148610             8149.43        -1.48962e+07         2.26518e+09
    7.23              148445             8132.12        -1.49062e+07          2.2672e+09
    7.25              148279             8114.72        -1.49159e+07         2.26918e+09
    7.27              148112             8097.24        -1.49254e+07         2.27111e+09
    7.29              147944             8079.68        -1.49345e+07           2.273e+09
    7.31              147775             8062.03        -1.49434e+07         2.27484e+09
    7.33              147605              8044.3        -1.49519e+07         2.27664e+09
    7.35              147434              8026.5        -1.49602e+07         2.27839e+09
    7.37              147262             8008.62        -1.49682e+07         2.28009e+09
    7.39              147089             7990.67        -1.49759e+07         2.28175e+09
    7.41              146915             7972.64        -1.49833e+07         2.28336e+09
    7.43              146739             7954.54        -1.49904e+07         2.28492e+09
    7.45              146563             7936.37        -1.49972e+07         2.28644e+09
    7.47              146386             7918.14        -1.50038e+07         2.28792e+09
    7.49              146207             7899.84          -1.501e+07         2.28934e+09
    7.51              146028             7881.47         -1.5016e+07         2.29072e+09
    7.53              145847             7863.05        -1.50217e+07         2.29206e+09
    7.55              145665             7844.56         -1.5027e+07         2.29334e+09
    7.57              145483             7826.02        -1.50321e+07         2.29458e+09
    7.59              145299             7807.41        -1.50369e+07         2.29578e+09
    7.61              145114             7788.76        -1.50414e+07         2.29693e+09
    7.63              144928             7770.05        -1.50456e+07         2.29803e+09
    7.65              144742             7751.28        -1.50496e+07         2.29908e+09
    7.67              144554             7732.47        -1.50532e+07         2.30009e+09
    7.69              144365             7713.61        -1.50565e+07         2.30105e+09
    7.71              144175              7694.7        -1.50596e+07         2.30197e+09
    7.73              143984             7675.75        -1.50623e+07         2.30284e+09
    7.75              143791             7656.76        -1.50648e+07         2.30366e+09
    7.77              143598             7637.72         -1.5067e+07         2.30444e+09
    7.79              143404             7618.65        -1.50689e+07         2.30517e+09
    7.81              143209             7599.53        -1.50705e+07         2.30585e+09
    7.83              143013             7580.38        -1.50718e+07         2.30649e+09
    7.85              142816             7561.19        -1.50728e+07         2.30708e+09
    7.87              142617             7541.98        -1.50735e+07         2.30762e+09
    7.89              142418             7522.73         -1.5074e+07         2.30812e+09
    7.91              142218             7503.45        -1.50741e+07         2.30857e+09
    7.93              142017             7484.14         -1.5074e+07         2.30898e+09
    7.95              141814              7464.8        -1.50736e+07         2.30934e+09
    7.97              141611             7445.44        -1.50728e+07         2.30965e+09
    7.99              141407             7426.06        -1.50718e+07         2.30992e+09
    8.01              141202             7406.66        -1.50706e+07         2.31015e+09
    8.03              140995             7387.23         -1.5069e+07         2.31032e+09
    8.05              140788             7367.79        -1.50671e+07         2.31045e+09
    8.07              140580             7348.33         -1.5065e+07         2.31054e+09
    8.09              140371             7328.85        -1.50626e+07         2.31058e+09
    8.11              140161             7309.36        -1.50599e+07         2.31058e+09
    8.13              139950             7289.86        -1.50569e+07         2.31053e+09
    8.15              139738             7270.35        -1.50536e+07         2.31043e+09
    8.17              139525             7250.82        -1.50501e+07         2.31029e+09
    8.19              139311             7231.29        -1.50462e+07         2.31011e+09
    8.21              139096             7211.76        -1.50421e+07         2.30988e+09
    8.23              138880             7192.22        -1.50378e+07          2.3096e+09
    8.25              138664             7172.67        -1.50331e+07         2.30928e+09
    8.27              138446             7153.13        -1.50281e+07         2.30892e+09
    8.29              138228             7133.58        -1.50229e+07         2.30851e+09
    8.31              138008             7114.03        -1.50174e+07         2.30806e+09
    8.33              137788             7094.49        -1.50117e+07         2.30757e+09
    8.35              137567             7074.95        -1.50056e+07         2.30703e+09
    8.37              137345             7055.42        -1.49993e+07         2.30645e+09
    8.39              137122             7035.89        -1.49928e+07         2.30582e+09
    8.41              136898             7016.38        -1.49859e+07         2.30515e+09
    8.43              136673             6996.87        -1.49788e+07         2.30444e+09
    8.45              136448             6977.37        -1.49714e+07         2.30368e+09
    8.47              136221             6957.89        -1.49637e+07         2.30289e+09
    8.49              135994             6938.42        -1.49558e+07         2.30205e+09
    8.51              135766             6918.96        -1.49477e+07         2.30116e+09
    8.53              135537             6899.52        -1.49392e+07         2.30024e+09
    8.55              135308              6880.1        -1.49305e+07         2.29927e+09
    8.57              135077              6860.7        -1.49215e+07         2.29826e+09
    8.59              134846             6841.32        -1.49123e+07         2.29722e+09
    8.61              134614             6821.96        -1.49028e+07         2.29612e+09
    8.63              134381             6802.63        -1.48931e+07         2.29499e+09
    8.65              134148             6783.32        -1.48831e+07         2.29382e+09
    8.67              133913             6764.03        -1.48729e+07         2.29261e+09
    8.69              133678             6744.77        -1.48624e+07         2.29135e+09
    8.71              133442             6725.54        -1.48516e+07         2.29006e+09
    8.73              133206             6706.34        -1.48406e+07         2.28872e+09
    8.75              132969             6687.17        -1.48294e+07         2.28735e+09
    8.77              132731             6668.03        -1.48179e+07         2.28593e+09
    8.79              132492             6648.93        -1.48062e+07         2.28448e+09
    8.81              132253             6629.86        -1.47942e+07         2.28299e+09
    8.83              132012             6610.82         -1.4782e+07         2.28146e+09
    8.85              131772             6591.83        -1.47695e+07         2.27989e+09
    8.87              131530             6572.87        -1.47568e+07         2.27828e+09
    8.89              131288             6553.94        -1.47439e+07         2.27663e+09
    8.91              131046             6535.06        -1.47307e+07         2.27495e+09
    8.93              130802             6516.22        -1.47173e+07         2.27323e+09
    8.95              130558             6497.42        -1.47037e+07         2.27147e+09
    8.97              130314             6478.67        -1.46898e+07         2.26967e+09
    8.99              130069             6459.96        -1.46757e+07         2.26784e+09
    9.01              129823              6441.3        -1.46614e+07         2.26597e+09
    9.03              129576             6422.68        -1.46469e+07         2.26407e+09
    9.05              129329             6404.11        -1.46321e+07         2.26213e+09
    9.07              129082             6385.59        -1.46171e+07         2.26015e+09
    9.09              128834             6367.12        -1.46019e+07         2.25814e+09
    9.11              128585              6348.7        -1.45865e+07         2.25609e+09
    9.13              128336             6330.33        -1.45708e+07         2.25401e+09
    9.15              128087             6312.01         -1.4555e+07         2.25189e+09
    9.17              127837             6293.75        -1.45389e+07         2.24974e+09
    9.19              127586             6275.54        -1.45227e+07         2.24756e+09
    9.21              127335             6257.39        -1.45062e+07         2.24534e+09
    9.23              127084              6239.3        -1.44895e+07         2.24309e+09
    9.25              126832             6221.26        -1.44726e+07          2.2408e+09
    9.27              126579             6203.28        -1.44555e+07         2.23849e+09
    9.29              126326             6185.37        -1.44382e+07         2.23614e+09
    9.31              126073             6167.51        -1.44207e+07         2.23375e+09
    9.33              125819             6149.71         -1.4403e+07         2.23134e+09
    9.35              125565             6131.98        -1.43851e+07          2.2289e+09
    9.37              125311              6114.3         -1.4367e+07         2.22642e+09
    9.39              125056              6096.7        -1.43488e+07         2.22391e+09
    9.41              124801             6079.15        -1.43303e+07         2.22137e+09
    9.43              124545             6061.68        -1.43116e+07         2.21881e+09
    9.45              124289             6044.27        -1.42928e+07         2.21621e+09
    9.47              124033             6026.92        -1.42738e+07         2.21358e+09
    9.49              123777             6009.65        -1.42546e+07         2.21092e+09
    9.51              123520             5992.44        -1.42352e+07         2.20824e+09
    9.53              123263              5975.3        -1.42157e+07         2.20552e+09
    9.55              123005             5958.23        -1.41959e+07         2.20278e+09
    9.57              122748             5941.24         -1.4176e+07         2.20001e+09
    9.59              122490             5924.31         -1.4156e+07         2.19721e+09
    9.61              122232             5907.46        -1.41357e+07         2.19439e+09
    9.63              121973             5890.68        -1.41153e+07         2.19153e+09
    9.65              121715             5873.98        -1.40948e+07         2.18865e+09
    9.67              121456             5857.35         -1.4074e+07         2.18575e+09
    9.69              121197             5840.79        -1.40531e+07         2.18282e+09
    9.71              120938             5824.31        -1.40321e+07         2.17986e+09
    9.73              120679             5807.91        -1.40109e+07         2.17688e+09
    9.75              120419             5791.59        -1.39895e+07         2.17387e+09
    9.77              120160             5775.34         -1.3968e+07         2.17084e+09
    9.79              119900             5759.17        -1.39464e+07         2.16778e+09
    9.81              119640             5743.08        -1.39246e+07          2.1647e+09
    9.83              119380             5727.07        -1.39026e+07         2.16159e+09
    9.85              119120             5711.14        -1.38805e+07         2.15846e+09
    9.87              118860             5695.29        -1.38583e+07         2.15531e+09
    9.89              118600             5679.53        -1.38359e+07         2.15214e+09
    9.91              118340             5663.84        -1.38134e+07         2.14894e+09
    9.93              118080             5648.24        -1.37908e+07         2.14573e+09
    9.95              117819             5632.72         -1.3768e+07         2.14249e+09
    9.97              117559             5617.29        -1.37451e+07         2.13922e+09
    9.99              117299             5601.93        -1.37221e+07         2.13594e+09
   10.01              117039             5586.67        -1.36989e+07         2.13264e+09
   10.03              116779             5571.49        -1.36756e+07         2.12932e+09
   10.05              116518             5556.39        -1.36522e+07         2.12597e+09
   10.07              116258             5541.38        -1.36287e+07         2.12261e+09
   10.09              115998             5526.46        -1.36051e+07         2.11923e+09
   10.11              115738             5511.62        -1.35813e+07         2.11583e+09
   10.13              115478             5496.87        -1.35574e+07         2.11241e+09
   10.15              115219             5482.21        -1.35335e+07         2.10897e+09
   10.17              114959             5467.63        -1.35094e+07         2.10551e+09
   10.19              114699             5453.15        -1.34852e+07         2.10204e+09
   10.21              114440             5438.75        -1.34609e+07         2.09855e+09
   10.23              114181             5424.45        -1.34365e+07         2.09504e+09
   10.25              113922             5410.23         -1.3412e+07         2.09151e+09
   10.27              113663              5396.1        -1.33874e+07         2.08797e+09
   10.29              113404             5382.07        -1.33627e+07         2.08441e+09
   10.31              113146             5368.12        -1.33379e+07         2.08084e+09
   10.33              112887             5354.26         -1.3313e+07         2.07725e+09
   10.35              112629              5340.5         -1.3288e+07         2.07365e+09
   10.37              112371             5326.83         -1.3263e+07         2.07003e+09
   10.39              112114             5313.25        -1.32378e+07         2.06639e+09
   10.41              111856             5299.76        -1.32126e+07         2.06275e+09
   10.43              111599             5286.36        -1.31873e+07         2.05909e+09
   10.45              111342             5273.06        -1.31619e+07         2.05541e+09
   10.47              111086             5259.85        -1.31364e+07         2.05172e+09
   10.49              110830             5246.73        -1.31109e+07         2.04802e+09
   10.51              110574             5233.71        -1.30853e+07         2.04431e+09
   10.53              110318             5220.78        -1.30596e+07         2.04058e+09
   10.55              110063             5207.94        -1.30338e+07         2.03685e+09
   10.57              109808              5195.2         -1.3008e+07          2.0331e+09
   10.59              109554             5182.55        -1.29821e+07         2.02934e+09
   10.61              109299                5170        -1.29561e+07         2.02556e+09
   10.63              109046             5157.54        -1.29301e+07         2.02178e+09
   10.65              108792             5145.17         -1.2904e+07         2.01799e+09
   10.67              108539              5132.9        -1.28779e+07         2.01418e+09
   10.69              108287             5120.72        -1.28517e+07         2.01037e+09
   10.71              108034             5108.64        -1.28255e+07         2.00655e+09
   10.73              107783             5096.66        -1.27992e+07         2.00272e+09
   10.75              107531             5084.76        -1.27728e+07         1.99888e+09
   10.77              107281             5072.97        -1.27464e+07         1.99503e+09
   10.79              107030             5061.27          -1.272e+07         1.99117e+09
   10.81              106780             5049.66        -1.26935e+07          1.9873e+09
   10.83              106531             5038.15        -1.26669e+07         1.98343e+09
   10.85              106282             5026.74        -1.26404e+07         1.97954e+09
   10.87              106034             5015.42        -1.26138e+07         1.97565e+09
   10.89              105786             5004.19        -1.25871e+07         1.97176e+09
   10.91              105538             4993.07        -1.25604e+07         1.96786e+09
   10.93              105291             4982.03        -1.25337e+07         1.96395e+09
   10.95              105045              4971.1        -1.25069e+07         1.96003e+09
   10.97              104799             4960.25        -1.24801e+07         1.95611e+09
   10.99              104554             4949.51        -1.24533e+07         1.95218e+09
   11.01              104310             4938.85        -1.24265e+07         1.94825e+09
   11.03              104066              4928.3        -1.23996e+07         1.94431e+09
   11.05              103822             4917.84        -1.23727e+07         1.94036e+09
   11.07              103579             4907.47        -1.23458e+07         1.93641e+09
   11.09              103337              4897.2        -1.23188e+07         1.93246e+09
   11.11              103095             4887.02        -1.22919e+07          1.9285e+09
   11.13              102854             4876.94        -1.22649e+07         1.92454e+09
   11.15              102614             4866.96        -1.22379e+07         1.92058e+09
   11.17              102374             4857.06        -1.22109e+07         1.91661e+09
   11.19              102135             4847.27        -1.21839e+07         1.91263e+09
   11.21              101896             4837.56        -1.21568e+07         1.90866e+09
   11.23              101658             4827.95        -1.21298e+07         1.90468e+09
   11.25              101421             4818.44        -1.21027e+07          1.9007e+09
   11.27              101185             4809.02        -1.20757e+07         1.89672e+09
   11.29              100949             4799.69        -1.20486e+07         1.89273e+09
   11.31              100714             4790.45        -1.20215e+07         1.88874e+09
   11.33              100479             4781.31        -1.19944e+07         1.88475e+09
   11.35              100245             4772.26        -1.19674e+07         1.88076e+09
   11.37              100012             4763.31        -1.19403e+07         1.87677e+09
   11.39               99780             4754.44        -1.19132e+07         1.87277e+09
   11.41             99548.4             4745.67        -1.18861e+07         1.86878e+09
   11.43             99317.4                4737         -1.1859e+07         1.86478e+09
   11.45             99087.3             4728.41         -1.1832e+07         1.86078e+09
   11.47             98857.8             4719.91        -1.18049e+07         1.85679e+09
   11.49             98629.1             4711.51        -1.17778e+07         1.85279e+09
   11.51             98401.2              4703.2        -1.17508e+07         1.84879e+09
   11.53               98174             4694.97        -1.17237e+07         1.84479e+09
   11.55             97947.5             4686.84        -1.16967e+07          1.8408e+09
   11.57             97721.8              4678.8        -1.16697e+07          1.8368e+09
   11.59             97496.9             4670.85        -1.16427e+07          1.8328e+09
   11.61             97272.8             4662.98        -1.16157e+07         1.82881e+09
   11.63             97049.4             4655.21        -1.15887e+07         1.82481e+09
   11.65             96826.8             4647.52        -1.15617e+07         1.82082e+09
   11.67               96605             4639.93        -1.15348e+07         1.81682e+09
   11.69               96384             4632.42        -1.15079e+07         1.81283e+09
   11.71             96163.8                4625        -1.14809e+07         1.80884e+09
   11.73             95944.4             4617.66         -1.1454e+07         1.80485e+09
   11.75             95725.8             4610.41        -1.14272e+07         1.80086e+09
   11.77               95508             4603.25        -1.14003e+07         1.79688e+09
   11.79             95291.1             4596.18        -1.13735e+07          1.7929e+09
   11.81             95074.9             4589.19        -1.13467e+07         1.78891e+09
   11.83             94859.5             4582.28        -1.13199e+07         1.78494e+09
   11.85               94645             4575.46        -1.12932e+07         1.78096e+09
   11.87             94431.3             4568.73        -1.12664e+07         1.77698e+09
   11.89             94218.4             4562.07        -1.12397e+07         1.77301e+09
   11.91             94006.3             4555.51        -1.12131e+07         1.76904e+09
   11.93             93795.1             4549.02        -1.11864e+07         1.76508e+09
   11.95             93584.7             4542.62        -1.11598e+07         1.76112e+09
   11.97             93375.2              4536.3        -1.11332e+07         1.75716e+09
   11.99             93166.5             4530.06        -1.11066e+07          1.7532e+09
   12.01             92958.6              4523.9        -1.10801e+07         1.74924e+09
   12.03             92751.6             4517.82        -1.10536e+07         1.74529e+09
   12.05             92545.4             4511.82        -1.10272e+07         1.74135e+09
   12.07             92340.1              4505.9        -1.10007e+07          1.7374e+09
   12.09             92135.6             4500.06        -1.09743e+07         1.73346e+09
   12.11             91931.9              4494.3         -1.0948e+07         1.72953e+09
   12.13             91729.2             4488.61        -1.09216e+07         1.72559e+09
   12.15             91527.2                4483        -1.08954e+07         1.72166e+09
   12.17             91326.1             4477.47        -1.08691e+07         1.71774e+09
   12.19             91125.9             4472.02        -1.08429e+07         1.71382e+09
   12.21             90926.5             4466.64        -1.08167e+07          1.7099e+09
   12.23               90728             4461.33        -1.07906e+07         1.70599e+09
   12.25             90530.3              4456.1        -1.07645e+07         1.70208e+09
   12.27             90333.5             4450.95        -1.07384e+07         1.69817e+09
   12.29             90137.6             4445.86        -1.07124e+07         1.69427e+09
   12.31             89942.5             4440.85        -1.06864e+07         1.69038e+09
   12.33             89748.2             4435.91        -1.06604e+07         1.68648e+09
   12.35             89554.8             4431.04        -1.06345e+07          1.6826e+09
   12.37             89362.3             4426.25        -1.06086e+07         1.67871e+09
   12.39             89170.6             4421.52        -1.05828e+07         1.67483e+09
   12.41             88979.8             4416.86         -1.0557e+07         1.67096e+09
   12.43             88789.8             4412.27        -1.05313e+07         1.66709e+09
   12.45             88600.7             4407.75        -1.05056e+07         1.66322e+09
   12.47             88412.4             4403.29        -1.04799e+07         1.65936e+09
   12.49               88225             4398.91        -1.04543e+07          1.6555e+09
   12.51             88038.4             4394.58        -1.04287e+07         1.65165e+09
   12.53             87852.6             4390.33        -1.04031e+07          1.6478e+09
   12.55             87667.8             4386.13        -1.03776e+07         1.64396e+09
   12.57             87483.7                4382        -1.03522e+07         1.64012e+09
   12.59             87300.5             4377.94        -1.03268e+07         1.63629e+09
   12.61             87118.1             4373.94        -1.03014e+07         1.63246e+09
   12.63             86936.6             4369.99        -1.02761e+07         1.62863e+09
   12.65             86755.9             4366.11        -1.02508e+07         1.62481e+09
   12.67             86576.1             4362.29        -1.02256e+07           1.621e+09
   12.69               86397             4358.53        -1.02004e+07         1.61719e+09
   12.71             86218.8             4354.83        -1.01752e+07         1.61338e+09
   12.73             86041.4             4351.19        -1.01501e+07         1.60958e+09
   12.75             85864.9              4347.6         -1.0125e+07         1.60578e+09
   12.77             85689.2             4344.07           -1.01e+07         1.60199e+09
   12.79             85514.2              4340.6         -1.0075e+07          1.5982e+09
   12.81             85340.1             4337.18        -1.00501e+07         1.59442e+09
   12.83             85166.8             4333.81        -1.00252e+07         1.59064e+09
   12.85             84994.4              4330.5        -1.00003e+07         1.58686e+09
   12.87             84822.7             4327.24         -9.9755e+06         1.58309e+09
   12.89             84651.8             4324.03        -9.95073e+06         1.57932e+09
   12.91             84481.7             4320.88          -9.926e+06         1.57556e+09
   12.93             84312.4             4317.77        -9.90131e+06          1.5718e+09
   12.95             84143.9             4314.72        -9.87667e+06         1.56805e+09
   12.97             83976.2             4311.71        -9.85207e+06          1.5643e+09
   12.99             83809.3             4308.75        -9.82751e+06         1.56056e+09
   13.01             83643.2             4305.83        -9.80299e+06         1.55682e+09
   13.03             83477.8             4302.97        -9.77852e+06         1.55308e+09
   13.05             83313.2             4300.15        -9.75408e+06         1.54935e+09
   13.07             83149.3             4297.37        -9.72969e+06         1.54562e+09
   13.09             82986.3             4294.64        -9.70534e+06         1.54189e+09
   13.11               82824             4291.95        -9.68103e+06         1.53817e+09
   13.13             82662.4              4289.3        -9.65675e+06         1.53445e+09
   13.15             82501.6             4286.69        -9.63252e+06         1.53074e+09
   13.17             82341.5             4284.13        -9.60833e+06         1.52703e+09
   13.19             82182.2              4281.6        -9.58418e+06         1.52332e+09
   13.21             82023.6             4279.11        -9.56007e+06         1.51962e+09
   13.23             81865.7             4276.66        -9.53599e+06         1.51592e+09
   13.25             81708.6             4274.25        -9.51196e+06         1.51223e+09
   13.27             81552.1             4271.87        -9.48796e+06         1.50854e+09
   13.29             81396.4             4269.53        -9.46401e+06         1.50485e+09
   13.31             81241.4             4267.22        -9.44008e+06         1.50116e+09
   13.33             81087.1             4264.94         -9.4162e+06         1.49748e+09
   13.35             80933.5              4262.7        -9.39236e+06          1.4938e+09
   13.37             80780.6             4260.49        -9.36855e+06         1.49013e+09
   13.39             80628.4             4258.31        -9.34477e+06         1.48645e+09
   13.41             80476.9             4256.16        -9.32104e+06         1.48278e+09
   13.43             80326.1             4254.04        -9.29733e+06         1.47912e+09
   13.45             80175.9             4251.95        -9.27367e+06         1.47545e+09
   13.47             80026.4             4249.88        -9.25004e+06         1.47179e+09
   13.49             79877.5             4247.84        -9.22644e+06         1.46813e+09
   13.51             79729.3             4245.83        -9.20287e+06         1.46447e+09
   13.53             79581.8             4243.84        -9.17934e+06         1.46082e+09
   13.55             79434.9             4241.88        -9.15585e+06         1.45717e+09
   13.57             79288.6             4239.93        -9.13238e+06         1.45352e+09
   13.59               79143             4238.01        -9.10895e+06         1.44987e+09
   13.61               78998             4236.11        -9.08555e+06         1.44623e+09
   13.63             78853.6             4234.23        -9.06218e+06         1.44258e+09
   13.65             78709.8             4232.37        -9.03884e+06         1.43894e+09
   13.67             78566.7             4230.53        -9.01553e+06          1.4353e+09
   13.69             78424.1              4228.7        -8.99225e+06         1.43166e+09
   13.71             78282.2              4226.9        -8.96901e+06         1.42803e+09
   13.73             78140.8              4225.1        -8.94579e+06         1.42439e+09
   13.75               78000             4223.32        -8.92259e+06         1.42076e+09
   13.77             77859.8             4221.56        -8.89943e+06         1.41713e+09
   13.79             77720.2             4219.81         -8.8763e+06          1.4135e+09
   13.81             77581.2             4218.07        -8.85319e+06         1.40987e+09
   13.83             77442.7             4216.34        -8.83011e+06         1.40624e+09
   13.85             77304.7             4214.62        -8.80705e+06         1.40262e+09
   13.87             77167.3             4212.91        -8.78402e+06         1.39899e+09
   13.89             77030.5              4211.2        -8.76101e+06         1.39537e+09
   13.91             76894.2             4209.51        -8.73803e+06         1.39174e+09
   13.93             76758.4             4207.82        -8.71508e+06         1.38812e+09
   13.95             76623.1             4206.14        -8.69215e+06          1.3845e+09
   13.97             76488.4             4204.46        -8.66924e+06         1.38088e+09
   13.99             76354.2             4202.78        -8.64635e+06         1.37725e+09
   14.01             76220.5             4201.11        -8.62349e+06         1.37363e+09
   14.03             76087.2             4199.44        -8.60065e+06         1.37001e+09
   14.05             75954.5             4197.77        -8.57782e+06         1.36639e+09
   14.07             75822.3             4196.09        -8.55503e+06         1.36277e+09
   14.09             75690.5             4194.42        -8.53225e+06         1.35915e+09
   14.11             75559.2             4192.75        -8.50949e+06         1.35553e+09
   14.13             75428.4             4191.07        -8.48675e+06         1.35191e+09
   14.15             75298.1             4189.39        -8.46402e+06         1.34829e+09
   14.17             75168.2              4187.7        -8.44132e+06         1.34467e+09
   14.19             75038.7             4186.01        -8.41864e+06         1.34104e+09
   14.21             74909.7             4184.32        -8.39597e+06         1.33742e+09
   14.23             74781.2             4182.61        -8.37332e+06          1.3338e+09
   14.25             74653.1              4180.9        -8.35068e+06         1.33017e+09
   14.27             74525.4             4179.17        -8.32807e+06         1.32655e+09
   14.29             74398.1             4177.44        -8.30546e+06         1.32292e+09
   14.31             74271.2              4175.7        -8.28288e+06          1.3193e+09
   14.33             74144.8             4173.94        -8.26031e+06         1.31567e+09
   14.35             74018.7             4172.17        -8.23775e+06         1.31204e+09
   14.37             73893.1             4170.39         -8.2152e+06         1.30841e+09
   14.39             73767.8             4168.59        -8.19267e+06         1.30478e+09
   14.41             73642.9             4166.77        -8.17016e+06         1.30115e+09
   14.43             73518.4             4164.94        -8.14765e+06         1.29752e+09
   14.45             73394.3             4163.09        -8.12516e+06         1.29388e+09
   14.47             73270.6             4161.23        -8.10268e+06         1.29024e+09
   14.49             73147.2             4159.34        -8.08021e+06         1.28661e+09
   14.51             73024.2             4157.44        -8.05775e+06         1.28297e+09
   14.53             72901.5             4155.51         -8.0353e+06         1.27932e+09
   14.55             72779.2             4153.56        -8.01286e+06         1.27568e+09
   14.57             72657.2             4151.59        -7.99043e+06         1.27203e+09
   14.59             72535.5              4149.6        -7.96801e+06         1.26839e+09
   14.61             72414.2             4147.58         -7.9456e+06         1.26474e+09
   14.63             72293.2             4145.53         -7.9232e+06         1.26109e+09
   14.65             72172.5             4143.46        -7.90081e+06         1.25743e+09
   14.67             72052.2             4141.36        -7.87842e+06         1.25377e+09
   14.69             71932.1             4139.24        -7.85605e+06         1.25012e+09
   14.71             71812.4             4137.08        -7.83368e+06         1.24646e+09
   14.73             71692.9              4134.9        -7.81131e+06         1.24279e+09
   14.75             71573.8             4132.68        -7.78895e+06         1.23913e+09
   14.77             71454.9             4130.43         -7.7666e+06         1.23546e+09
   14.79             71336.3             4128.16        -7.74426e+06         1.23179e+09
   14.81               71218             4125.84        -7.72192e+06         1.22811e+09
   14.83               71100              4123.5        -7.69959e+06         1.22444e+09
   14.85             70982.2             4121.12        -7.67726e+06         1.22076e+09
   14.87             70864.7              4118.7        -7.65493e+06         1.21707e+09
   14.89             70747.5             4116.25        -7.63261e+06         1.21339e+09
   14.91             70630.5             4113.76         -7.6103e+06          1.2097e+09
   14.93             70513.8             4111.23        -7.58799e+06         1.20601e+09
   14.95             70397.3             4108.67        -7.56568e+06         1.20232e+09
   14.97             70281.1             4106.06        -7.54338e+06         1.19862e+09
   14.99             70165.1             4103.41        -7.52108e+06         1.19492e+09
   15.01             70049.3             4100.73        -7.49878e+06         1.19122e+09
   15.03             69933.8                4098        -7.47649e+06         1.18751e+09
   15.05             69818.5             4095.23        -7.45419e+06          1.1838e+09
   15.07             69703.4             4092.41        -7.43191e+06         1.18009e+09
   15.09             69588.6             4089.55        -7.40962e+06         1.17637e+09
   15.11             69473.9             4086.65        -7.38733e+06         1.17265e+09
   15.13             69359.5             4083.69        -7.36505e+06         1.16893e+09
   15.15             69245.3              4080.7        -7.34277e+06          1.1652e+09
   15.17             69131.2             4077.65        -7.32049e+06         1.16147e+09
   15.19             69017.4             4074.56        -7.29822e+06         1.15774e+09
   15.21             68903.8             4071.42        -7.27594e+06           1.154e+09
   15.23             68790.4             4068.23        -7.25367e+06         1.15026e+09
   15.25             68677.1             4064.99         -7.2314e+06         1.14652e+09
   15.27             68564.1             4061.69        -7.20913e+06         1.14277e+09
   15.29             68451.2             4058.35        -7.18686e+06         1.13902e+09
   15.31             68338.5             4054.95        -7.16459e+06         1.13527e+09
   15.33               68226              4051.5        -7.14232e+06         1.13151e+09
   15.35             68113.6                4048        -7.12006e+06         1.12775e+09
   15.37             68001.4             4044.44        -7.09779e+06         1.12399e+09
   15.39             67889.4             4040.83        -7.07553e+06         1.12022e+09
   15.41             67777.6             4037.16        -7.05327e+06         1.11645e+09
   15.43             67665.9             4033.44        -7.03101e+06         1.11267e+09
   15.45             67554.4             4029.66        -7.00875e+06         1.10889e+09
   15.47               67443             4025.82        -6.98649e+06         1.10511e+09
   15.49             67331.8             4021.92        -6.96423e+06         1.10133e+09
   15.51             67220.8             4017.96        -6.94197e+06         1.09754e+09
   15.53             67109.9             4013.94        -6.91972e+06         1.09374e+09
   15.55             66999.1             4009.86        -6.89746e+06         1.08995e+09
   15.57             66888.5             4005.73        -6.87521e+06         1.08615e+09
   15.59             66778.1             4001.53        -6.85296e+06         1.08235e+09
   15.61             66667.8             3997.26        -6.83071e+06         1.07854e+09
   15.63             66557.6             3992.94        -6.80846e+06         1.07473e+09
   15.65             66447.6             3988.55        -6.78622e+06         1.07091e+09
   15.67             66337.7              3984.1        -6.76397e+06          1.0671e+09
   15.69             66227.9             3979.58        -6.74173e+06         1.06328e+09
   15.71             66118.3                3975        -6.71949e+06         1.05945e+09
   15.73             66008.8             3970.35        -6.69726e+06         1.05563e+09
   15.75             65899.4             3965.64        -6.67502e+06          1.0518e+09
   15.77             65790.2             3960.86        -6.65279e+06         1.04796e+09
   15.79             65681.1             3956.01        -6.63056e+06         1.04412e+09
   15.81             65572.1              3951.1        -6.60834e+06         1.04028e+09
   15.83             65463.2             3946.12        -6.58612e+06         1.03644e+09
   15.85             65354.5             3941.06         -6.5639e+06         1.03259e+09
   15.87             65245.9             3935.94        -6.54169e+06         1.02874e+09
   15.89             65137.4             3930.75        -6.51948e+06         1.02489e+09
   15.91             65029.1             3925.49        -6.49727e+06         1.02104e+09
   15.93             64920.8             3920.16        -6.47507e+06         1.01718e+09
   15.95             64812.7             3914.76        -6.45288e+06         1.01332e+09
   15.97             64704.7             3909.28        -6.43069e+06         1.00945e+09
   15.99             64596.9             3903.74         -6.4085e+06         1.00558e+09
   16.01             64489.1             3898.12        -6.38633e+06         1.00171e+09
   16.03             64381.5             3892.43        -6.36415e+06          9.9784e+08
   16.05               64274             3886.66        -6.34199e+06         9.93965e+08
   16.07             64166.6             3880.82        -6.31983e+06         9.90087e+08
   16.09             64059.3             3874.91        -6.29768e+06         9.86206e+08
   16.11             63952.2             3868.93        -6.27554e+06         9.82323e+08
   16.13             63845.1             3862.86         -6.2534e+06         9.78437e+08
   16.15             63738.2             3856.73        -6.23128e+06         9.74549e+08
   16.17             63631.4             3850.52        -6.20916e+06         9.70659e+08
   16.19             63524.8             3844.23        -6.18705e+06         9.66767e+08
   16.21             63418.2             3837.87        -6.16495e+06         9.62872e+08
   16.23             63311.8             3831.43        -6.14286e+06         9.58975e+08
   16.25             63205.5             3824.91        -6.12078e+06         9.55077e+08
   16.27             63099.3             3818.31        -6.09872e+06         9.51176e+08
   16.29             62993.2             3811.64        -6.07666e+06         9.47274e+08
   16.31             62887.3             3804.89        -6.05462e+06         9.43369e+08
   16.33             62781.4             3798.07        -6.03258e+06         9.39463e+08
   16.35             62675.7             3791.16        -6.01056e+06         9.35556e+08
   16.37             62570.2             3784.18        -5.98856e+06         9.31647e+08
   16.39             62464.7             3777.12        -5.96657e+06         9.27736e+08
   16.41             62359.4             3769.98        -5.94459e+06         9.23824e+08
   16.43             62254.2             3762.76        -5.92263e+06         9.19911e+08
   16.45             62149.2             3755.46        -5.90068e+06         9.15997e+08
   16.47             62044.2             3748.08        -5.87874e+06         9.12082e+08
   16.49             61939.4             3740.62        -5.85683e+06         9.08165e+08
   16.51             61834.8             3733.09        -5.83493e+06         9.04248e+08
   16.53             61730.2             3725.47        -5.81305e+06          9.0033e+08
   16.55             61625.8             3717.77        -5.79118e+06         8.96411e+08
   16.57             61521.6             3709.99        -5.76934e+06         8.92491e+08
   16.59             61417.4             3702.14        -5.74751e+06         8.88571e+08
   16.61             61313.5              3694.2         -5.7257e+06         8.84651e+08
   16.63             61209.6             3686.18        -5.70392e+06          8.8073e+08
   16.65             61105.9             3678.08        -5.68215e+06         8.76809e+08
   16.67             61002.4              3669.9         -5.6604e+06         8.72888e+08
   16.69               60899             3661.64        -5.63868e+06         8.68966e+08
   16.71             60795.7              3653.3        -5.61698e+06         8.65045e+08
   16.73             60692.6             3644.88         -5.5953e+06         8.61124e+08
   16.75             60589.6             3636.38        -5.57365e+06         8.57204e+08
   16.77             60486.8             3627.79        -5.55202e+06         8.53284e+08
   16.79             60384.2             3619.13        -5.53041e+06         8.49364e+08
   16.81             60281.7             3610.38        -5.50884e+06         8.45445e+08
   16.83             60179.4             3601.56        -5.48728e+06         8.41526e+08
   16.85             60077.2             3592.65        -5.46576e+06         8.37609e+08
   16.87             59975.2             3583.66        -5.44426e+06         8.33692e+08
   16.89             59873.4             3574.59        -5.42279e+06         8.29777e+08
   16.91             59771.7             3565.45        -5.40134e+06         8.25863e+08
   16.93             59670.2             3556.22        -5.37993e+06          8.2195e+08
   16.95             59568.9             3546.91        -5.35855e+06         8.18038e+08
   16.97             59467.7             3537.52         -5.3372e+06         8.14128e+08
   16.99             59366.7             3528.05        -5.31587e+06          8.1022e+08
   17.01               59266              3518.5        -5.29459e+06         8.06314e+08
   17.03             59165.3             3508.87        -5.27333e+06         8.02409e+08
   17.05             59064.9             3499.16        -5.25211e+06         7.98506e+08
   17.07             58964.7             3489.37        -5.23092e+06         7.94606e+08
   17.09             58864.6              3479.5        -5.20976e+06         7.90708e+08
   17.11             58764.8             3469.56        -5.18864e+06         7.86812e+08
   17.13             58665.1             3459.53        -5.16756e+06         7.82919e+08
   17.15             58565.6             3449.43        -5.14651e+06         7.79028e+08
   17.17             58466.4             3439.24        -5.12551e+06          7.7514e+08
   17.19             58367.3             3428.98        -5.10453e+06         7.71255e+08
   17.21             58268.4             3418.64         -5.0836e+06         7.67374e+08
   17.23             58169.8             3408.23        -5.06271e+06         7.63495e+08
   17.25             58071.3             3397.73        -5.04186e+06         7.59619e+08
   17.27             57973.1             3387.16        -5.02105e+06         7.55747e+08
   17.29             57875.1             3376.52        -5.00027e+06         7.51878e+08
   17.31             57777.3             3365.79        -4.97955e+06         7.48013e+08
   17.33             57679.7             3354.99        -4.95886e+06         7.44152e+08
   17.35             57582.3             3344.12        -4.93822e+06         7.40295e+08
   17.37             57485.2             3333.16        -4.91762e+06         7.36442e+08
   17.39             57388.3             3322.14        -4.89707e+06         7.32593e+08
   17.41             57291.6             3311.04        -4.87656e+06         7.28748e+08
   17.43             57195.1             3299.86         -4.8561e+06         7.24907e+08
   17.45             57098.9             3288.61        -4.83569e+06         7.21072e+08
   17.47               57003             3277.29        -4.81532e+06          7.1724e+08
   17.49             56907.2              3265.9        -4.79501e+06         7.13414e+08
   17.51             56811.8             3254.43        -4.77474e+06         7.09593e+08
   17.53             56716.5             3242.89        -4.75452e+06         7.05776e+08
   17.55             56621.5             3231.28        -4.73435e+06         7.01965e+08
   17.57             56526.8              3219.6        -4.71423e+06         6.98159e+08
   17.59             56432.3             3207.85        -4.69417e+06         6.94359e+08
   17.61             56338.1             3196.03        -4.67416e+06         6.90564e+08
   17.63             56244.1             3184.13         -4.6542e+06         6.86775e+08
   17.65             56150.4             3172.17        -4.63429e+06         6.82992e+08
   17.67               56057             3160.15        -4.61444e+06         6.79215e+08
   17.69             55963.8             3148.05        -4.59464e+06         6.75444e+08
   17.71             55870.9             3135.89         -4.5749e+06         6.71679e+08
   17.73             55778.3             3123.66        -4.55522e+06         6.67921e+08
   17.75               55686             3111.36        -4.53559e+06         6.64169e+08
   17.77             55593.9                3099        -4.51602e+06         6.60423e+08
   17.79             55502.1             3086.57        -4.49651e+06         6.56685e+08
   17.81             55410.6             3074.08        -4.47706e+06         6.52953e+08
   17.83             55319.4             3061.53        -4.45767e+06         6.49228e+08
   17.85             55228.5             3048.91        -4.43834e+06         6.45511e+08
   17.87             55137.8             3036.23        -4.41907e+06           6.418e+08
   17.89             55047.5             3023.49        -4.39986e+06         6.38097e+08
   17.91             54957.4             3010.69        -4.38072e+06         6.34402e+08
   17.93             54867.7             2997.83        -4.36164e+06         6.30714e+08
   17.95             54778.2              2984.9        -4.34262e+06         6.27034e+08
   17.97             54689.1             2971.92        -4.32366e+06         6.23362e+08
   17.99             54600.3             2958.89        -4.30477e+06         6.19698e+08
   18.01             54511.7             2945.79        -4.28595e+06         6.16042e+08
   18.03             54423.5             2932.64        -4.26719e+06         6.12395e+08
   18.05             54335.6             2919.43         -4.2485e+06         6.08755e+08
   18.07               54248             2906.17        -4.22987e+06         6.05125e+08
   18.09             54160.7             2892.86        -4.21132e+06         6.01503e+08
   18.11             54073.8             2879.49        -4.19283e+06         5.97889e+08
   18.13             53987.1             2866.06        -4.17441e+06         5.94285e+08
   18.15             53900.8             2852.59        -4.15606e+06         5.90689e+08
   18.17             53814.8             2839.07        -4.13778e+06         5.87103e+08
   18.19             53729.2             2825.49        -4.11957e+06         5.83526e+08
   18.21             53643.8             2811.87        -4.10143e+06         5.79958e+08
   18.23             53558.8              2798.2        -4.08337e+06         5.76399e+08
   18.25             53474.1             2784.48        -4.06537e+06         5.72851e+08
   18.27             53389.8             2770.71        -4.04745e+06         5.69312e+08
   18.29             53305.8              2756.9        -4.02961e+06         5.65782e+08
   18.31             53222.1             2743.04        -4.01183e+06         5.62263e+08
   18.33             53138.8             2729.14        -3.99413e+06         5.58754e+08
   18.35             53055.8             2715.19        -3.97651e+06         5.55254e+08
   18.37             52973.2             2701.21        -3.95896e+06         5.51765e+08
   18.39             52890.9             2687.18        -3.94148e+06         5.48287e+08
   18.41               52809             2673.11        -3.92409e+06         5.44819e+08
   18.43             52727.4             2659.01        -3.90677e+06         5.41361e+08
   18.45             52646.1             2644.86        -3.88952e+06         5.37914e+08
   18.47             52565.2             2630.68        -3.87236e+06         5.34478e+08
   18.49             52484.7             2616.46        -3.85527e+06         5.31053e+08
   18.51             52404.5              2602.2        -3.83826e+06         5.27639e+08
   18.53             52324.6             2587.91        -3.82133e+06         5.24236e+08
   18.55             52245.1             2573.59        -3.80448e+06         5.20844e+08
   18.57               52166             2559.23        -3.78771e+06         5.17464e+08
   18.59             52087.3             2544.84        -3.77102e+06         5.14094e+08
   18.61             52008.8             2530.42        -3.75441e+06         5.10737e+08
   18.63             51930.8             2515.98        -3.73788e+06         5.07391e+08
   18.65             51853.1              2501.5        -3.72144e+06         5.04056e+08
   18.67             51775.8             2486.99        -3.70507e+06         5.00734e+08
   18.69             51698.8             2472.46        -3.68879e+06         4.97423e+08
   18.71             51622.2              2457.9        -3.67259e+06         4.94125e+08
   18.73               51546             2443.32        -3.65647e+06         4.90838e+08
   18.75             51470.1             2428.72        -3.64044e+06         4.87563e+08
   18.77             51394.6             2414.09        -3.62448e+06         4.84301e+08
   18.79             51319.4             2399.44        -3.60862e+06         4.81051e+08
   18.81             51244.7             2384.77        -3.59283e+06         4.77814e+08
   18.83             51170.2             2370.08        -3.57714e+06         4.74589e+08
   18.85             51096.2             2355.37        -3.56152e+06         4.71376e+08
   18.87             51022.5             2340.64        -3.54599e+06         4.68177e+08
   18.89             50949.2              2325.9        -3.53055e+06          4.6499e+08
   18.91             50876.3             2311.14        -3.51519e+06         4.61815e+08
   18.93             50803.7             2296.37        -3.49992e+06         4.58654e+08
   18.95             50731.5             2281.58        -3.48473e+06         4.55506e+08
   18.97             50659.7             2266.79        -3.46963e+06         4.52371e+08
   18.99             50588.2             2251.98        -3.45462e+06         4.49249e+08
   19.01             50517.1             2237.16         -3.4397e+06          4.4614e+08
   19.03             50446.3             2222.33        -3.42486e+06         4.43044e+08
   19.05               50376             2207.49         -3.4101e+06         4.39962e+08
   19.07               50306             2192.65        -3.39544e+06         4.36893e+08
   19.09             50236.3              2177.8        -3.38086e+06         4.33838e+08
   19.11             50167.1             2162.95        -3.36637e+06         4.30796e+08
   19.13             50098.2             2148.09        -3.35197e+06         4.27768e+08
   19.15             50029.6             2133.23        -3.33765e+06         4.24753e+08
   19.17             49961.4             2118.37        -3.32343e+06         4.21752e+08
   19.19             49893.6             2103.51        -3.30929e+06         4.18765e+08
   19.21             49826.2             2088.65        -3.29524e+06         4.15792e+08
   19.23             49759.1             2073.78        -3.28128e+06         4.12833e+08
   19.25             49692.4             2058.93        -3.26741e+06         4.09888e+08
   19.27               49626             2044.07        -3.25362e+06         4.06957e+08
   19.29               49560             2029.22        -3.23993e+06          4.0404e+08
   19.31             49494.3             2014.38        -3.22632e+06         4.01137e+08
   19.33               49429             1999.54         -3.2128e+06         3.98248e+08
   19.35             49364.1             1984.71        -3.19937e+06         3.95374e+08
   19.37             49299.5             1969.89        -3.18603e+06         3.92513e+08
   19.39             49235.3             1955.08        -3.17278e+06         3.89668e+08
   19.41             49171.4             1940.28        -3.15962e+06         3.86836e+08
   19.43             49107.9             1925.49        -3.14655e+06         3.84019e+08
   19.45             49044.7             1910.72        -3.13356e+06         3.81216e+08
   19.47             48981.9             1895.96        -3.12067e+06         3.78428e+08
   19.49             48919.4             1881.21        -3.10786e+06         3.75655e+08
   19.51             48857.2             1866.48        -3.09514e+06         3.72896e+08
   19.53             48795.4             1851.76        -3.08251e+06         3.70151e+08
   19.55               48734             1837.07        -3.06997e+06         3.67422e+08
   19.57             48672.9             1822.39        -3.05752e+06         3.64707e+08
   19.59             48612.1             1807.73        -3.04516e+06         3.62006e+08
   19.61             48551.6              1793.1        -3.03288e+06         3.59321e+08
   19.63             48491.5             1778.48         -3.0207e+06          3.5665e+08
   19.65             48431.7             1763.89         -3.0086e+06         3.53994e+08
   19.67             48372.2             1749.33        -2.99659e+06         3.51353e+08
   19.69             48313.1             1734.78        -2.98467e+06         3.48726e+08
   19.71             48254.3             1720.27        -2.97284e+06         3.46115e+08
   19.73             48195.8             1705.78        -2.96109e+06         3.43519e+08
   19.75             48137.6             1691.31        -2.94944e+06         3.40937e+08
   19.77             48079.7             1676.88        -2.93787e+06          3.3837e+08
   19.79             48022.2             1662.47        -2.92638e+06         3.35819e+08
   19.81               47965              1648.1        -2.91499e+06         3.33282e+08
   19.83               47908             1633.76        -2.90368e+06          3.3076e+08
   19.85             47851.4             1619.44        -2.89246e+06         3.28254e+08
   19.87             47795.1             1605.17        -2.88132e+06         3.25762e+08
   19.89             47739.1             1590.92        -2.87028e+06         3.23285e+08
   19.91             47683.3             1576.71        -2.85931e+06         3.20824e+08
   19.93             47627.9             1562.54        -2.84844e+06         3.18377e+08
   19.95             47572.8              1548.4        -2.83765e+06         3.15946e+08
   19.97             47517.9              1534.3        -2.82694e+06         3.13529e+08
   19.99             47463.3             1520.24        -2.81632e+06         3.11128e+08
